TESTE DA PLACA: RFFE

Operador: Fernando
Numero de Serie: 11111111
RFFE Software Version: V2_0002
RFFE - IP: 10.0.18.9
RFFE - Communication: OK
Start Time: 23-02-2017 20:52:50
End Time: 23-02-2017 20:52:50
Duracao do Teste: 6.609 min

Set-up Info:
Network Analyzer Model: E5062A
Network Analyzer - IP: 10.0.18.20
Network Analyzer - Communication: OK
Waveform Generator Model: 33500B
Waveform Generator - IP: 10.0.18.13
Waveform Generator - Communication: OK
RF Switch Model: RC-2SP4T-A18
RF Switch1 - IP: 10.0.18.12
RF Switch1 - Communication: OK
RF Switch2 - IP: 10.0.18.15
RF Switch2 - Communication: OK
DC Power Supply Model: 6626A

RESULTS:

RFFE Ch: 4-3

Freq [MHz]  S11 [dB]    S12 [dB]    S21 [dB]    S22 [dB]    
430.0       -2.59       -61.47      -59.68      -16.14      
430.05625   -2.55       -57.67      -55.33      -16.43      
430.1125    -2.53       -52.99      -72.29      -16.08      
430.16875   -2.55       -53.4       -62.62      -16.26      
430.225     -2.58       -62.24      -73.25      -16.2       
430.28125   -2.58       -58.91      -56.23      -16.35      
430.3375    -2.55       -60.76      -59.29      -16.13      
430.39375   -2.55       -61.62      -59.37      -16.35      
430.45      -2.5        -65.79      -62.64      -16.13      
430.50625   -2.57       -64.92      -56.35      -16.28      
430.5625    -2.51       -66.89      -59.85      -16.1       
430.61875   -2.57       -53.33      -60.67      -16.26      
430.675     -2.55       -56.41      -55.74      -16.2       
430.73125   -2.59       -56.73      -60.82      -16.32      
430.7875    -2.52       -64.66      -58.13      -16.11      
430.84375   -2.56       -52.72      -63.4       -16.27      
430.9       -2.52       -60.07      -69.29      -16.21      
430.95625   -2.57       -73.17      -56.06      -16.29      
431.0125    -2.55       -59.79      -65.43      -16.14      
431.06875   -2.59       -56.43      -60.07      -16.36      
431.125     -2.54       -60.1       -60.37      -16.22      
431.18125   -2.55       -61.52      -55.56      -16.27      
431.2375    -2.52       -61.8       -53.82      -16.09      
431.29375   -2.55       -57.71      -67.4       -16.31      
431.35      -2.48       -54.6       -66.68      -16.18      
431.40625   -2.53       -72.73      -69.17      -16.31      
431.4625    -2.49       -56.9       -64.95      -16.14      
431.51875   -2.53       -63.43      -57.69      -16.22      
431.575     -2.49       -55.06      -53.57      -16.06      
431.63125   -2.56       -58.03      -58.72      -16.2       
431.6875    -2.49       -56.06      -61.1       -16.11      
431.74375   -2.54       -59.24      -54.91      -16.46      
431.8       -2.56       -56.17      -58.35      -16.09      
431.85625   -2.55       -58.01      -71.0       -16.25      
431.9125    -2.5        -58.46      -61.91      -16.08      
431.96875   -2.61       -62.27      -55.82      -16.28      
432.025     -2.58       -56.33      -60.28      -16.1       
432.08125   -2.57       -60.23      -64.67      -16.28      
432.1375    -2.57       -57.07      -68.29      -16.22      
432.19375   -2.59       -77.59      -57.0       -16.33      
432.25      -2.56       -58.98      -56.87      -16.09      
432.30625   -2.59       -53.91      -65.12      -16.09      
432.3625    -2.57       -75.6       -54.23      -16.03      
432.41875   -2.6        -60.44      -58.95      -16.23      
432.475     -2.6        -55.59      -58.18      -16.23      
432.53125   -2.64       -80.57      -66.06      -16.17      
432.5875    -2.59       -51.99      -57.17      -16.15      
432.64375   -2.63       -55.54      -61.72      -16.21      
432.7       -2.65       -57.59      -56.73      -16.11      
432.75625   -2.69       -54.44      -61.21      -16.29      
432.8125    -2.64       -53.76      -58.79      -16.11      
432.86875   -2.71       -68.69      -60.38      -16.22      
432.925     -2.64       -53.39      -61.15      -16.03      
432.98125   -2.71       -60.05      -62.26      -16.36      
433.0375    -2.68       -54.29      -52.96      -16.24      
433.09375   -2.65       -63.35      -64.33      -16.25      
433.15      -2.71       -61.38      -58.48      -16.13      
433.20625   -2.71       -61.3       -57.17      -16.19      
433.2625    -2.68       -54.88      -52.82      -16.24      
433.31875   -2.65       -55.38      -54.34      -16.2       
433.375     -2.66       -53.53      -54.97      -16.21      
433.43125   -2.67       -55.71      -55.09      -16.37      
433.4875    -2.66       -54.69      -55.22      -16.07      
433.54375   -2.69       -57.28      -56.71      -16.21      
433.6       -2.67       -65.42      -52.63      -16.16      
433.65625   -2.7        -56.34      -55.43      -16.29      
433.7125    -2.64       -58.13      -55.56      -16.17      
433.76875   -2.65       -62.86      -63.51      -16.12      
433.825     -2.68       -64.04      -78.76      -16.07      
433.88125   -2.66       -54.68      -55.17      -16.18      
433.9375    -2.66       -59.26      -54.51      -16.18      
433.99375   -2.65       -60.86      -71.77      -16.32      
434.05      -2.64       -58.5       -61.98      -16.12      
434.10625   -2.64       -68.56      -50.1       -16.27      
434.1625    -2.65       -56.22      -59.61      -16.22      
434.21875   -2.67       -63.4       -63.61      -16.22      
434.275     -2.63       -65.63      -63.64      -16.24      
434.33125   -2.69       -57.7       -59.64      -16.18      
434.3875    -2.66       -59.45      -61.44      -16.11      
434.44375   -2.66       -59.83      -60.25      -16.27      
434.5       -2.6        -55.75      -61.41      -16.11      
434.55625   -2.67       -57.79      -62.76      -16.19      
434.6125    -2.68       -66.78      -68.27      -16.18      
434.66875   -2.66       -53.09      -56.57      -16.32      
434.725     -2.65       -65.13      -59.06      -16.08      
434.78125   -2.68       -69.36      -63.44      -16.18      
434.8375    -2.66       -87.64      -56.23      -16.12      
434.89375   -2.71       -58.77      -63.59      -16.21      
434.95      -2.7        -63.37      -59.71      -16.21      
435.00625   -2.69       -56.4       -63.45      -16.2       
435.0625    -2.69       -54.08      -64.15      -16.14      
435.11875   -2.71       -72.01      -68.79      -16.17      
435.175     -2.64       -62.85      -67.36      -16.06      
435.23125   -2.68       -61.41      -60.5       -16.2       
435.2875    -2.67       -55.16      -63.21      -16.18      
435.34375   -2.67       -68.12      -56.8       -16.26      
435.4       -2.63       -57.74      -56.5       -16.19      
435.45625   -2.7        -55.67      -64.77      -16.17      
435.5125    -2.64       -57.2       -65.53      -16.06      
435.56875   -2.7        -80.7       -58.74      -16.18      
435.625     -2.64       -61.92      -55.87      -16.11      
435.68125   -2.64       -54.45      -51.6       -16.15      
435.7375    -2.68       -52.51      -54.59      -16.18      
435.79375   -2.69       -61.24      -65.87      -16.07      
435.85      -2.61       -59.02      -73.83      -16.08      
435.90625   -2.63       -59.66      -54.94      -16.18      
435.9625    -2.63       -56.52      -56.42      -16.13      
436.01875   -2.63       -59.98      -65.17      -16.08      
436.075     -2.62       -60.39      -54.85      -16.22      
436.13125   -2.65       -54.71      -59.06      -16.1       
436.1875    -2.62       -55.51      -56.93      -16.17      
436.24375   -2.62       -68.6       -59.1       -16.17      
436.3       -2.64       -79.55      -62.49      -16.27      
436.35625   -2.63       -67.0       -65.82      -16.2       
436.4125    -2.61       -60.23      -56.22      -16.29      
436.46875   -2.69       -59.51      -57.91      -16.18      
436.525     -2.66       -55.16      -80.5       -16.2       
436.58125   -2.68       -61.57      -68.93      -16.29      
436.6375    -2.66       -65.61      -65.99      -16.12      
436.69375   -2.67       -53.75      -62.36      -16.18      
436.75      -2.67       -52.18      -60.65      -16.2       
436.80625   -2.71       -56.23      -58.18      -16.16      
436.8625    -2.68       -54.74      -68.59      -16.28      
436.91875   -2.74       -56.29      -65.36      -16.18      
436.975     -2.69       -85.07      -65.67      -16.26      
437.03125   -2.73       -56.04      -64.35      -16.21      
437.0875    -2.69       -58.6       -60.67      -16.26      
437.14375   -2.76       -59.53      -59.77      -16.19      
437.2       -2.77       -55.56      -52.13      -16.13      
437.25625   -2.82       -59.66      -54.92      -16.2       
437.3125    -2.82       -57.78      -63.0       -16.19      
437.36875   -2.82       -61.12      -54.23      -16.1       
437.425     -2.86       -56.64      -53.24      -16.31      
437.48125   -2.85       -56.0       -57.96      -16.2       
437.5375    -2.86       -60.65      -63.15      -16.21      
437.59375   -2.87       -57.32      -54.33      -16.09      
437.65      -2.9        -56.93      -60.98      -16.28      
437.70625   -2.96       -74.64      -59.63      -16.19      
437.7625    -2.96       -54.96      -55.09      -16.21      
437.81875   -2.95       -55.84      -59.1       -16.08      
437.875     -2.95       -69.98      -59.87      -16.16      
437.93125   -2.96       -53.1       -65.19      -16.16      
437.9875    -2.89       -54.05      -59.5       -16.21      
438.04375   -2.95       -70.35      -56.8       -16.09      
438.1       -2.86       -62.61      -66.24      -16.15      
438.15625   -2.92       -60.6       -58.37      -16.05      
438.2125    -2.9        -61.71      -67.86      -16.42      
438.26875   -2.88       -57.73      -58.75      -16.13      
438.325     -2.82       -55.57      -56.19      -16.24      
438.38125   -2.81       -55.32      -59.69      -16.26      
438.4375    -2.77       -65.3       -63.09      -16.2       
438.49375   -2.76       -55.14      -58.48      -16.08      
438.55      -2.72       -53.08      -55.33      -16.26      
438.60625   -2.77       -60.74      -62.59      -16.14      
438.6625    -2.72       -61.04      -54.66      -16.17      
438.71875   -2.72       -62.73      -57.77      -16.07      
438.775     -2.66       -54.85      -66.38      -16.34      
438.83125   -2.72       -60.16      -59.35      -16.12      
438.8875    -2.64       -65.94      -58.79      -16.29      
438.94375   -2.69       -55.68      -68.22      -16.19      
439.0       -2.67       -58.08      -57.86      -16.15      
439.05625   -2.68       -51.67      -62.08      -16.15      
439.1125    -2.64       -55.75      -55.74      -16.27      
439.16875   -2.64       -53.24      -56.57      -16.16      
439.225     -2.6        -56.02      -57.18      -16.2       
439.28125   -2.65       -60.2       -58.49      -16.12      
439.3375    -2.64       -60.18      -64.79      -16.21      
439.39375   -2.66       -61.7       -56.03      -16.09      
439.45      -2.64       -55.74      -64.58      -16.27      
439.50625   -2.68       -58.78      -58.93      -16.22      
439.5625    -2.64       -71.49      -50.88      -16.2       
439.61875   -2.67       -65.05      -59.3       -16.15      
439.675     -2.62       -56.44      -64.3       -16.3       
439.73125   -2.65       -59.09      -57.35      -16.13      
439.7875    -2.62       -56.78      -58.96      -16.22      
439.84375   -2.71       -65.76      -82.73      -16.18      
439.9       -2.62       -56.06      -53.36      -16.33      
439.95625   -2.71       -55.54      -60.47      -16.16      
440.0125    -2.65       -64.63      -60.93      -16.15      
440.06875   -2.73       -58.35      -56.85      -16.15      
440.125     -2.68       -60.76      -56.71      -16.3       
440.18125   -2.74       -65.74      -60.17      -16.07      
440.2375    -2.78       -56.11      -55.79      -16.25      
440.29375   -2.85       -74.11      -62.67      -16.19      
440.35      -2.79       -58.11      -61.72      -16.27      
440.40625   -2.83       -59.23      -59.18      -16.09      
440.4625    -2.81       -60.12      -58.11      -16.29      
440.51875   -2.89       -59.65      -56.14      -16.15      
440.575     -2.88       -73.58      -54.12      -16.31      
440.63125   -2.89       -66.5       -60.1       -16.09      
440.6875    -2.86       -55.73      -62.61      -16.25      
440.74375   -2.9        -63.46      -58.27      -16.09      
440.8       -2.93       -65.66      -57.79      -16.32      
440.85625   -3.0        -56.55      -59.79      -16.13      
440.9125    -2.89       -56.38      -57.88      -16.22      
440.96875   -3.04       -58.78      -56.06      -16.05      
441.025     -2.98       -59.38      -56.21      -16.32      
441.08125   -2.99       -59.5       -73.25      -16.07      
441.1375    -3.01       -54.19      -64.77      -16.24      
441.19375   -3.02       -54.84      -59.52      -16.13      
441.25      -2.94       -70.03      -68.65      -16.36      
441.30625   -2.96       -50.68      -62.42      -16.14      
441.3625    -2.93       -55.13      -64.13      -16.18      
441.41875   -2.91       -55.71      -61.63      -16.16      
441.475     -2.89       -68.77      -56.91      -16.38      
441.53125   -2.86       -65.73      -58.97      -16.06      
441.5875    -2.83       -61.84      -67.89      -16.32      
441.64375   -2.84       -67.24      -58.57      -16.09      
441.7       -2.74       -77.05      -57.49      -16.22      
441.75625   -2.83       -54.97      -56.64      -16.15      
441.8125    -2.78       -53.9       -56.29      -16.22      
441.86875   -2.77       -57.15      -59.49      -16.17      
441.925     -2.74       -56.16      -59.62      -16.33      
441.98125   -2.76       -56.13      -72.4       -16.15      
442.0375    -2.73       -55.2       -52.42      -16.27      
442.09375   -2.77       -52.86      -77.97      -16.14      
442.15      -2.7        -53.49      -56.71      -16.31      
442.20625   -2.7        -54.31      -55.49      -16.05      
442.2625    -2.65       -55.87      -65.97      -16.29      
442.31875   -2.66       -64.92      -71.29      -16.07      
442.375     -2.65       -61.62      -59.8       -16.41      
442.43125   -2.69       -55.03      -53.06      -16.19      
442.4875    -2.65       -60.73      -81.89      -16.22      
442.54375   -2.6        -52.75      -64.67      -16.13      
442.6       -2.62       -63.56      -57.38      -16.29      
442.65625   -2.66       -60.83      -57.69      -16.09      
442.7125    -2.61       -56.99      -73.54      -16.3       
442.76875   -2.63       -61.23      -54.54      -16.12      
442.825     -2.61       -62.11      -61.14      -16.23      
442.88125   -2.64       -55.72      -57.35      -16.13      
442.9375    -2.62       -61.85      -53.04      -16.41      
442.99375   -2.64       -63.69      -58.51      -16.06      
443.05      -2.62       -55.09      -64.85      -16.15      
443.10625   -2.66       -67.59      -60.94      -16.23      
443.1625    -2.63       -61.84      -66.02      -16.3       
443.21875   -2.66       -57.37      -56.7       -16.17      
443.275     -2.58       -58.88      -60.73      -16.25      
443.33125   -2.65       -62.33      -57.67      -16.06      
443.3875    -2.6        -56.33      -58.46      -16.25      
443.44375   -2.67       -74.09      -55.9       -16.26      
443.5       -2.59       -61.13      -60.26      -16.26      
443.55625   -2.67       -56.09      -63.03      -16.18      
443.6125    -2.61       -52.52      -61.79      -16.32      
443.66875   -2.64       -57.67      -69.82      -15.97      
443.725     -2.58       -53.19      -52.32      -16.22      
443.78125   -2.64       -53.57      -57.84      -16.16      
443.8375    -2.62       -62.99      -57.1       -16.23      
443.89375   -2.63       -65.88      -56.66      -16.12      
443.95      -2.6        -55.24      -62.6       -16.23      
444.00625   -2.67       -58.6       -63.22      -16.12      
444.0625    -2.65       -76.2       -58.01      -16.31      
444.11875   -2.67       -68.26      -70.76      -16.15      
444.175     -2.63       -59.91      -63.05      -16.37      
444.23125   -2.62       -53.9       -60.74      -16.13      
444.2875    -2.61       -57.97      -59.39      -16.34      
444.34375   -2.65       -61.72      -52.57      -16.0       
444.4       -2.63       -51.44      -58.55      -16.38      
444.45625   -2.67       -51.48      -74.85      -16.31      
444.5125    -2.64       -63.95      -73.24      -16.28      
444.56875   -2.69       -57.38      -67.24      -16.16      
444.625     -2.65       -63.03      -64.36      -16.38      
444.68125   -2.7        -64.73      -73.78      -16.16      
444.7375    -2.66       -56.38      -56.72      -16.28      
444.79375   -2.67       -56.98      -60.79      -16.13      
444.85      -2.65       -53.69      -56.7       -16.43      
444.90625   -2.71       -53.85      -61.64      -16.22      
444.9625    -2.65       -58.69      -61.27      -16.2       
445.01875   -2.67       -60.95      -62.45      -16.19      
445.075     -2.6        -56.84      -58.93      -16.22      
445.13125   -2.67       -56.07      -57.02      -16.1       
445.1875    -2.6        -57.16      -54.19      -16.26      
445.24375   -2.64       -63.79      -60.99      -16.13      
445.3       -2.61       -57.99      -59.08      -16.14      
445.35625   -2.64       -59.63      -72.05      -16.07      
445.4125    -2.62       -62.79      -68.78      -16.29      
445.46875   -2.56       -58.17      -67.1       -16.19      
445.525     -2.58       -57.51      -58.77      -16.24      
445.58125   -2.54       -56.55      -54.67      -15.96      
445.6375    -2.54       -66.29      -76.22      -16.27      
445.69375   -2.54       -55.01      -62.77      -16.17      
445.75      -2.49       -51.95      -71.35      -16.27      
445.80625   -2.56       -62.24      -73.28      -16.07      
445.8625    -2.48       -57.74      -69.02      -16.31      
445.91875   -2.52       -55.55      -60.96      -16.17      
445.975     -2.44       -63.49      -60.73      -16.34      
446.03125   -2.53       -63.34      -59.93      -16.09      
446.0875    -2.48       -54.25      -61.52      -16.22      
446.14375   -2.45       -57.64      -51.61      -16.16      
446.2       -2.46       -63.22      -61.64      -16.4       
446.25625   -2.46       -71.42      -55.64      -16.16      
446.3125    -2.45       -53.72      -66.31      -16.24      
446.36875   -2.5        -65.34      -59.12      -16.11      
446.425     -2.41       -84.97      -58.23      -16.3       
446.48125   -2.47       -56.61      -58.29      -16.19      
446.5375    -2.42       -62.03      -56.29      -16.3       
446.59375   -2.44       -60.1       -62.91      -16.16      
446.65      -2.44       -60.33      -62.24      -16.29      
446.70625   -2.44       -55.4       -57.13      -16.12      
446.7625    -2.43       -54.21      -69.06      -16.36      
446.81875   -2.44       -72.45      -61.32      -16.12      
446.875     -2.38       -64.75      -59.82      -16.28      
446.93125   -2.46       -66.02      -67.85      -16.24      
446.9875    -2.43       -53.36      -60.78      -16.27      
447.04375   -2.5        -65.15      -55.92      -16.11      
447.1       -2.42       -59.21      -57.4       -16.29      
447.15625   -2.45       -60.03      -63.18      -16.18      
447.2125    -2.44       -67.43      -55.7       -16.2       
447.26875   -2.49       -60.87      -65.42      -16.12      
447.325     -2.43       -58.28      -56.52      -16.22      
447.38125   -2.44       -59.64      -61.11      -16.24      
447.4375    -2.43       -66.18      -55.96      -16.24      
447.49375   -2.49       -61.72      -64.01      -16.2       
447.55      -2.42       -65.43      -51.63      -16.21      
447.60625   -2.44       -66.74      -58.22      -16.2       
447.6625    -2.45       -57.51      -63.13      -16.19      
447.71875   -2.5        -62.19      -65.87      -16.11      
