TESTE DA PLACA: RFFE

Operador: Fernando
Numero de Serie: 11111111
RFFE Software Version: V2_0002
RFFE - IP: 10.0.18.9
RFFE - Communication: OK
Start Time: 23-02-2017 20:52:50
End Time: 23-02-2017 20:52:50
Duracao do Teste: 6.609 min

Set-up Info:
Network Analyzer Model: E5062A
Network Analyzer - IP: 10.0.18.20
Network Analyzer - Communication: OK
Waveform Generator Model: 33500B
Waveform Generator - IP: 10.0.18.13
Waveform Generator - Communication: OK
RF Switch Model: RC-2SP4T-A18
RF Switch1 - IP: 10.0.18.12
RF Switch1 - Communication: OK
RF Switch2 - IP: 10.0.18.15
RF Switch2 - Communication: OK
DC Power Supply Model: 6626A

RESULTS:

RFFE Ch: 4-4

Freq [MHz]  S11 [dB]    S12 [dB]    S21 [dB]    S22 [dB]    
430.0       -2.6        -59.58      -44.68      -17.09      
430.05625   -2.59       -65.32      -42.56      -17.26      
430.1125    -2.54       -61.31      -44.27      -17.03      
430.16875   -2.57       -63.44      -45.06      -17.05      
430.225     -2.57       -52.72      -44.17      -17.03      
430.28125   -2.57       -62.68      -43.86      -17.13      
430.3375    -2.56       -67.65      -43.04      -17.01      
430.39375   -2.57       -62.12      -43.18      -17.12      
430.45      -2.52       -60.49      -44.46      -17.0       
430.50625   -2.57       -64.36      -42.74      -17.09      
430.5625    -2.51       -65.34      -43.14      -17.03      
430.61875   -2.58       -61.15      -42.49      -17.05      
430.675     -2.55       -67.11      -44.1       -17.08      
430.73125   -2.55       -57.43      -44.8       -17.07      
430.7875    -2.53       -56.09      -42.88      -17.05      
430.84375   -2.5        -53.83      -43.12      -17.22      
430.9       -2.53       -53.64      -44.25      -17.04      
430.95625   -2.57       -58.44      -43.54      -17.1       
431.0125    -2.55       -57.03      -41.91      -17.08      
431.06875   -2.57       -61.16      -41.87      -17.12      
431.125     -2.54       -54.01      -42.16      -17.06      
431.18125   -2.53       -54.56      -43.04      -17.08      
431.2375    -2.51       -68.48      -42.76      -16.96      
431.29375   -2.53       -58.16      -43.12      -17.14      
431.35      -2.48       -60.98      -43.08      -17.09      
431.40625   -2.52       -69.63      -43.27      -17.1       
431.4625    -2.51       -57.25      -42.51      -17.01      
431.51875   -2.5        -62.69      -43.31      -17.07      
431.575     -2.53       -52.02      -43.48      -16.96      
431.63125   -2.55       -54.3       -43.7       -17.1       
431.6875    -2.54       -63.98      -43.04      -16.94      
431.74375   -2.51       -59.28      -44.8       -17.18      
431.8       -2.57       -57.07      -43.56      -16.96      
431.85625   -2.57       -60.95      -43.5       -17.1       
431.9125    -2.5        -53.65      -43.68      -17.06      
431.96875   -2.6        -64.14      -42.79      -17.06      
432.025     -2.61       -70.11      -42.35      -17.04      
432.08125   -2.56       -52.47      -43.04      -17.05      
432.1375    -2.52       -63.24      -43.73      -17.07      
432.19375   -2.57       -65.73      -45.35      -17.17      
432.25      -2.6        -62.8       -42.31      -16.95      
432.30625   -2.6        -57.37      -43.59      -16.89      
432.3625    -2.57       -55.73      -43.65      -17.03      
432.41875   -2.6        -56.84      -45.0       -17.07      
432.475     -2.6        -56.23      -43.06      -17.06      
432.53125   -2.62       -61.5       -45.03      -17.04      
432.5875    -2.6        -69.61      -43.49      -17.06      
432.64375   -2.64       -62.99      -42.71      -17.12      
432.7       -2.64       -59.5       -42.73      -17.03      
432.75625   -2.69       -70.58      -45.03      -17.11      
432.8125    -2.67       -64.94      -42.76      -16.91      
432.86875   -2.73       -56.89      -45.1       -17.04      
432.925     -2.66       -69.85      -44.41      -17.01      
432.98125   -2.69       -55.71      -44.84      -17.08      
433.0375    -2.68       -67.06      -45.2       -17.05      
433.09375   -2.68       -56.56      -43.67      -16.98      
433.15      -2.7        -60.55      -44.14      -16.98      
433.20625   -2.71       -57.84      -44.72      -17.0       
433.2625    -2.66       -58.61      -42.79      -17.12      
433.31875   -2.63       -56.23      -43.44      -16.92      
433.375     -2.66       -64.66      -44.24      -17.09      
433.43125   -2.66       -54.62      -43.92      -17.06      
433.4875    -2.67       -64.33      -43.86      -16.98      
433.54375   -2.64       -60.45      -44.33      -17.08      
433.6       -2.68       -52.6       -43.16      -17.0       
433.65625   -2.68       -60.9       -45.24      -17.05      
433.7125    -2.64       -94.7       -43.84      -16.92      
433.76875   -2.66       -57.76      -45.36      -16.95      
433.825     -2.68       -58.33      -44.52      -16.97      
433.88125   -2.67       -59.64      -46.33      -16.96      
433.9375    -2.68       -58.2       -43.78      -17.14      
433.99375   -2.63       -57.43      -44.95      -17.04      
434.05      -2.63       -61.43      -41.98      -17.13      
434.10625   -2.65       -54.72      -45.86      -17.0       
434.1625    -2.65       -57.74      -42.24      -17.05      
434.21875   -2.66       -57.82      -45.23      -16.88      
434.275     -2.62       -70.08      -44.84      -17.0       
434.33125   -2.68       -76.56      -45.42      -16.99      
434.3875    -2.64       -55.49      -44.51      -17.0       
434.44375   -2.65       -68.41      -46.57      -17.0       
434.5       -2.64       -60.38      -45.17      -16.97      
434.55625   -2.68       -54.75      -44.59      -17.0       
434.6125    -2.65       -61.81      -42.45      -16.97      
434.66875   -2.66       -53.24      -46.84      -17.02      
434.725     -2.67       -60.33      -44.3       -17.07      
434.78125   -2.67       -59.1       -47.0       -16.95      
434.8375    -2.67       -58.87      -46.08      -17.01      
434.89375   -2.71       -56.65      -45.67      -16.97      
434.95      -2.66       -56.31      -44.23      -17.06      
435.00625   -2.66       -58.41      -46.05      -17.02      
435.0625    -2.69       -57.4       -43.55      -17.0       
435.11875   -2.71       -54.04      -47.43      -16.92      
435.175     -2.66       -56.73      -44.15      -16.92      
435.23125   -2.68       -64.61      -46.15      -16.99      
435.2875    -2.67       -56.17      -44.1       -17.04      
435.34375   -2.69       -62.45      -43.93      -17.04      
435.4       -2.64       -59.73      -44.59      -17.07      
435.45625   -2.71       -57.22      -45.32      -17.03      
435.5125    -2.65       -55.74      -45.44      -17.06      
435.56875   -2.66       -54.13      -43.73      -16.99      
435.625     -2.68       -61.7       -44.16      -17.03      
435.68125   -2.65       -58.37      -43.31      -17.01      
435.7375    -2.66       -61.24      -45.66      -17.0       
435.79375   -2.69       -61.21      -46.11      -16.94      
435.85      -2.65       -55.06      -45.74      -16.97      
435.90625   -2.63       -56.36      -45.44      -17.04      
435.9625    -2.64       -59.36      -44.36      -16.97      
436.01875   -2.64       -56.4       -48.74      -16.88      
436.075     -2.63       -59.95      -45.58      -17.11      
436.13125   -2.6        -50.63      -49.02      -16.86      
436.1875    -2.63       -60.25      -44.33      -17.03      
436.24375   -2.61       -58.85      -48.28      -16.95      
436.3       -2.67       -62.42      -44.85      -17.1       
436.35625   -2.63       -59.22      -53.48      -16.95      
436.4125    -2.62       -63.34      -45.45      -16.99      
436.46875   -2.65       -64.37      -53.6       -16.95      
436.525     -2.63       -54.19      -47.25      -16.99      
436.58125   -2.68       -60.86      -50.12      -16.98      
436.6375    -2.66       -52.23      -46.73      -17.01      
436.69375   -2.67       -75.9       -49.26      -16.98      
436.75      -2.69       -61.92      -47.72      -17.0       
436.80625   -2.69       -62.8       -55.65      -16.94      
436.8625    -2.66       -52.17      -50.39      -17.1       
436.91875   -2.74       -57.4       -52.84      -16.93      
436.975     -2.71       -58.01      -47.39      -17.01      
437.03125   -2.7        -60.28      -48.36      -17.04      
437.0875    -2.74       -54.73      -48.41      -17.09      
437.14375   -2.76       -64.02      -50.73      -16.96      
437.2       -2.8        -59.55      -44.06      -17.11      
437.25625   -2.79       -59.15      -52.8       -16.99      
437.3125    -2.85       -66.92      -50.53      -17.01      
437.36875   -2.8        -71.1       -52.36      -16.93      
437.425     -2.88       -63.73      -46.04      -17.08      
437.48125   -2.85       -51.92      -49.92      -16.94      
437.5375    -2.84       -55.32      -48.61      -16.91      
437.59375   -2.89       -60.56      -54.15      -16.92      
437.65      -2.94       -55.64      -49.07      -17.1       
437.70625   -2.94       -64.29      -50.09      -17.02      
437.7625    -2.95       -61.73      -46.13      -16.95      
437.81875   -2.96       -66.64      -47.98      -16.81      
437.875     -2.95       -52.23      -45.7       -17.04      
437.93125   -2.93       -68.04      -49.09      -16.84      
437.9875    -2.91       -59.1       -45.49      -17.0       
438.04375   -2.91       -57.98      -50.41      -16.89      
438.1       -2.91       -54.31      -45.71      -16.99      
438.15625   -2.93       -58.3       -48.25      -16.86      
438.2125    -2.91       -58.57      -45.54      -17.01      
438.26875   -2.83       -70.37      -48.01      -16.88      
438.325     -2.85       -64.81      -45.03      -16.92      
438.38125   -2.83       -60.39      -47.9       -16.97      
438.4375    -2.8        -52.55      -43.9       -17.07      
438.49375   -2.73       -57.49      -46.04      -16.82      
438.55      -2.72       -54.66      -43.78      -17.03      
438.60625   -2.75       -58.41      -48.57      -16.89      
438.6625    -2.7        -52.07      -43.1       -17.0       
438.71875   -2.66       -59.87      -45.7       -16.87      
438.775     -2.65       -56.02      -42.85      -17.05      
438.83125   -2.7        -61.74      -44.81      -17.05      
438.8875    -2.69       -56.93      -45.12      -17.09      
438.94375   -2.67       -65.2       -44.35      -16.93      
439.0       -2.65       -61.1       -43.69      -16.98      
439.05625   -2.67       -60.79      -44.69      -16.9       
439.1125    -2.64       -59.43      -43.4       -17.07      
439.16875   -2.61       -59.17      -44.56      -16.92      
439.225     -2.63       -63.65      -44.81      -16.88      
439.28125   -2.63       -60.79      -45.23      -16.95      
439.3375    -2.68       -55.71      -43.17      -16.91      
439.39375   -2.64       -58.72      -47.68      -16.82      
439.45      -2.67       -63.28      -44.31      -17.06      
439.50625   -2.65       -58.37      -44.6       -16.99      
439.5625    -2.63       -63.0       -43.43      -16.94      
439.61875   -2.62       -62.8       -44.82      -16.85      
439.675     -2.66       -58.05      -42.91      -17.07      
439.73125   -2.61       -61.27      -45.59      -16.86      
439.7875    -2.69       -59.72      -42.98      -17.05      
439.84375   -2.67       -55.62      -47.09      -16.88      
439.9       -2.66       -60.33      -42.06      -17.1       
439.95625   -2.68       -57.34      -47.75      -16.87      
440.0125    -2.66       -58.16      -42.94      -17.03      
440.06875   -2.69       -67.09      -45.72      -16.75      
440.125     -2.74       -58.97      -42.8       -17.06      
440.18125   -2.75       -56.16      -45.01      -16.9       
440.2375    -2.84       -62.75      -45.3       -17.03      
440.29375   -2.82       -65.47      -46.14      -16.99      
440.35      -2.83       -60.83      -45.51      -17.03      
440.40625   -2.78       -57.69      -47.44      -16.93      
440.4625    -2.82       -52.46      -43.38      -17.01      
440.51875   -2.84       -60.85      -46.4       -16.86      
440.575     -2.89       -59.4       -44.72      -17.1       
440.63125   -2.87       -56.96      -47.68      -16.86      
440.6875    -2.88       -59.56      -44.64      -17.03      
440.74375   -2.92       -57.81      -44.81      -16.93      
440.8       -2.94       -57.89      -44.86      -17.16      
440.85625   -2.98       -59.37      -46.27      -16.88      
440.9125    -2.95       -62.23      -43.75      -16.91      
440.96875   -3.0        -57.14      -48.22      -16.99      
441.025     -2.99       -67.15      -42.57      -17.02      
441.08125   -2.96       -62.22      -44.98      -16.84      
441.1375    -3.08       -64.45      -42.9       -17.03      
441.19375   -2.99       -58.51      -43.38      -17.01      
441.25      -2.97       -65.9       -43.1       -16.97      
441.30625   -2.93       -61.63      -43.8       -16.94      
441.3625    -2.95       -58.68      -42.74      -17.01      
441.41875   -2.87       -58.61      -42.98      -16.86      
441.475     -2.85       -55.06      -41.44      -17.09      
441.53125   -2.81       -55.46      -42.66      -16.85      
441.5875    -2.82       -53.52      -40.57      -17.03      
441.64375   -2.78       -55.08      -42.45      -16.93      
441.7       -2.78       -59.99      -42.65      -16.9       
441.75625   -2.79       -57.82      -41.89      -16.73      
441.8125    -2.81       -56.05      -42.57      -17.07      
441.86875   -2.74       -66.63      -43.16      -16.96      
441.925     -2.8        -58.1       -40.4       -16.94      
441.98125   -2.73       -61.47      -43.56      -16.84      
442.0375    -2.76       -58.88      -42.28      -17.0       
442.09375   -2.69       -56.13      -41.39      -16.9       
442.15      -2.69       -60.37      -40.61      -17.09      
442.20625   -2.65       -60.23      -41.79      -16.88      
442.2625    -2.68       -57.82      -40.21      -17.03      
442.31875   -2.63       -60.08      -42.67      -16.84      
442.375     -2.68       -75.57      -40.94      -17.08      
442.43125   -2.65       -71.04      -42.26      -16.81      
442.4875    -2.66       -58.68      -42.89      -16.9       
442.54375   -2.61       -56.44      -42.55      -16.91      
442.6       -2.68       -57.26      -40.34      -17.06      
442.65625   -2.61       -57.98      -43.12      -16.8       
442.7125    -2.63       -58.71      -41.43      -17.06      
442.76875   -2.62       -53.61      -43.35      -16.88      
442.825     -2.62       -65.1       -41.05      -17.06      
442.88125   -2.6        -57.43      -42.36      -16.91      
442.9375    -2.63       -61.26      -43.07      -17.06      
442.99375   -2.6        -57.09      -42.51      -16.87      
443.05      -2.65       -64.12      -42.36      -17.09      
443.10625   -2.64       -77.52      -42.6       -16.94      
443.1625    -2.66       -57.68      -40.93      -17.06      
443.21875   -2.65       -59.25      -44.39      -16.96      
443.275     -2.62       -62.31      -42.21      -17.02      
443.33125   -2.59       -60.81      -42.58      -16.86      
443.3875    -2.66       -55.63      -41.75      -16.85      
443.44375   -2.64       -64.25      -44.05      -17.04      
443.5       -2.61       -57.55      -42.8       -16.85      
443.55625   -2.62       -59.21      -43.0       -16.85      
443.6125    -2.65       -61.4       -41.67      -16.95      
443.66875   -2.62       -61.67      -42.11      -16.73      
443.725     -2.63       -77.52      -43.11      -16.83      
443.78125   -2.6        -61.95      -43.19      -16.92      
443.8375    -2.66       -69.48      -43.07      -16.92      
443.89375   -2.59       -56.32      -43.49      -16.81      
443.95      -2.62       -60.93      -44.39      -16.94      
444.00625   -2.61       -60.45      -42.58      -16.82      
444.0625    -2.67       -59.89      -42.47      -16.95      
444.11875   -2.64       -64.79      -45.13      -16.91      
444.175     -2.68       -54.17      -45.36      -16.98      
444.23125   -2.59       -59.44      -43.9       -16.91      
444.2875    -2.64       -68.59      -42.92      -16.97      
444.34375   -2.61       -56.66      -42.88      -16.76      
444.4       -2.68       -60.76      -44.21      -16.97      
444.45625   -2.65       -55.02      -44.32      -17.06      
444.5125    -2.68       -57.28      -42.88      -16.88      
444.56875   -2.66       -55.18      -47.6       -16.88      
444.625     -2.66       -63.74      -43.86      -16.92      
444.68125   -2.63       -65.2       -43.69      -16.83      
444.7375    -2.71       -54.13      -42.62      -17.04      
444.79375   -2.67       -51.53      -43.36      -16.89      
444.85      -2.69       -68.23      -43.34      -17.02      
444.90625   -2.67       -51.23      -43.13      -16.88      
444.9625    -2.68       -57.01      -43.19      -16.95      
445.01875   -2.61       -54.96      -42.49      -16.88      
445.075     -2.7        -57.46      -42.77      -17.05      
445.13125   -2.64       -61.81      -43.3       -16.82      
445.1875    -2.67       -57.6       -43.82      -16.87      
445.24375   -2.62       -56.87      -43.83      -16.87      
445.3       -2.63       -64.36      -45.18      -16.83      
445.35625   -2.6        -68.38      -44.95      -16.9       
445.4125    -2.64       -58.01      -43.22      -16.86      
445.46875   -2.52       -59.25      -43.88      -16.87      
445.525     -2.6        -79.22      -42.91      -16.9       
445.58125   -2.52       -59.73      -43.7       -16.73      
445.6375    -2.55       -58.64      -44.46      -16.9       
445.69375   -2.51       -57.8       -42.94      -16.92      
445.75      -2.55       -56.88      -43.79      -16.89      
445.80625   -2.51       -57.41      -44.57      -16.86      
445.8625    -2.52       -60.06      -44.99      -16.92      
445.91875   -2.48       -64.54      -42.06      -16.93      
445.975     -2.46       -58.7       -43.93      -16.93      
446.03125   -2.47       -76.2       -43.57      -16.92      
446.0875    -2.49       -55.9       -42.63      -16.82      
446.14375   -2.41       -55.59      -42.33      -16.91      
446.2       -2.49       -53.79      -43.07      -16.98      
446.25625   -2.43       -60.76      -41.46      -16.93      
446.3125    -2.47       -72.07      -43.79      -16.95      
446.36875   -2.46       -64.01      -41.54      -16.83      
446.425     -2.44       -60.03      -43.27      -16.82      
446.48125   -2.4        -56.77      -43.76      -16.88      
446.5375    -2.48       -66.4       -43.31      -16.8       
446.59375   -2.43       -59.94      -42.48      -16.82      
446.65      -2.45       -62.23      -43.7       -16.9       
446.70625   -2.37       -64.92      -42.18      -16.85      
446.7625    -2.46       -61.33      -42.6       -16.9       
446.81875   -2.41       -57.1       -43.18      -16.85      
446.875     -2.45       -80.83      -43.28      -16.87      
446.93125   -2.43       -56.09      -43.07      -16.89      
446.9875    -2.44       -53.24      -45.58      -16.91      
447.04375   -2.44       -57.01      -43.59      -16.9       
447.1       -2.48       -57.13      -42.58      -17.0       
447.15625   -2.4        -56.07      -43.57      -16.9       
447.2125    -2.45       -58.87      -43.18      -16.85      
447.26875   -2.43       -57.06      -41.74      -16.93      
447.325     -2.48       -61.29      -41.68      -16.93      
447.38125   -2.39       -53.45      -42.59      -16.85      
447.4375    -2.42       -58.32      -42.58      -16.9       
447.49375   -2.44       -62.51      -42.84      -16.85      
447.55      -2.46       -53.24      -45.16      -16.78      
447.60625   -2.43       -58.15      -41.84      -16.93      
447.6625    -2.47       -56.27      -42.97      -16.85      
447.71875   -2.44       -55.78      -42.32      -16.78      
